# WAVELENGTH_UNIT	nanometer
# COMPNAME       	ZTF_i
# NAME           	ZTF_i
# DETECTOR       	photon
#
## WAVELENGTH	None	nanometer
## THROUGHPUT	None	filter throughput definition
#
WAVELENGTH,THROUGHPUT
1100.0,0.372344
1099.8,0.3607
1099.6,0.349056
1099.4,0.337412
1099.2,0.325768
1099.0,0.314124
1098.8,0.3043414
1098.6,0.2945588
1098.4,0.2847762
1098.2,0.2749936
1098.0,0.265211
1097.8,0.2584078
1097.6,0.2516046
1097.4,0.2448014
1097.2,0.2379982
1097.0,0.231195
1096.8,0.2257412
1096.6,0.2202874
1096.4,0.2148336
1096.2,0.2093798
1096.0,0.203926
1095.8,0.1988574
1095.6,0.1937888
1095.4,0.1887202
1095.2,0.1836516
1095.0,0.178583
1094.8,0.173529
1094.6,0.168475
1094.4,0.163421
1094.2,0.158367
1094.0,0.153313
1093.8,0.1498946
1093.6,0.1464762
1093.4,0.1430578
1093.2,0.1396394
1093.0,0.136221
1092.8,0.132394
1092.6,0.128567
1092.4,0.12474
1092.2,0.120913
1092.0,0.117086
1091.8,0.1143434
1091.6,0.1116008
1091.4,0.1088582
1091.2,0.1061156
1091.0,0.103373
1090.8,0.1003968
1090.6,0.0974206
1090.4,0.0944444
1090.2,0.0914682
1090.0,0.088492
1089.8,0.0858528
1089.6,0.0832136
1089.4,0.0805744
1089.2,0.0779352
1089.0,0.075296
1088.8,0.0741636
1088.6,0.0730312
1088.4,0.0718988
1088.2,0.0707664
1088.0,0.069634
1087.8,0.068871
1087.6,0.068108
1087.4,0.067345
1087.2,0.066582
1087.0,0.065819
1086.8,0.0635358
1086.6,0.0612526
1086.4,0.0589694
1086.2,0.0566862
1086.0,0.054403
1085.8,0.0537074
1085.6,0.0530118
1085.4,0.0523162
1085.2,0.0516206
1085.0,0.050925
1084.8,0.0497104
1084.6,0.0484958
1084.4,0.0472812
1084.2,0.0460666
1084.0,0.044852
1083.8,0.0442392
1083.6,0.0436264
1083.4,0.0430136
1083.2,0.0424008
1083.0,0.041788
1082.8,0.0400946
1082.6,0.0384012
1082.4,0.0367078
1082.2,0.0350144
1082.0,0.033321
1081.8,0.0337648
1081.6,0.0342086
1081.4,0.0346524
1081.2,0.0350962
1081.0,0.03554
1080.8,0.0350734
1080.6,0.0346068
1080.4,0.0341402
1080.2,0.0336736
1080.0,0.033207
1079.8,0.0331968
1079.6,0.0331866
1079.4,0.0331764
1079.2,0.0331662
1079.0,0.033156
1078.8,0.0315652
1078.6,0.0299744
1078.4,0.0283836
1078.2,0.0267928
1078.0,0.025202
1077.8,0.0250902
1077.6,0.0249784
1077.4,0.0248666
1077.2,0.0247548
1077.0,0.024643
1076.8,0.0244358
1076.6,0.0242286
1076.4,0.0240214
1076.2,0.0238142
1076.0,0.023607
1075.8,0.0228242
1075.6,0.0220414
1075.4,0.0212586
1075.2,0.0204758
1075.0,0.019693
1074.8,0.019743
1074.6,0.019793
1074.4,0.019843
1074.2,0.019893
1074.0,0.019943
1073.8,0.0194314
1073.6,0.0189198
1073.4,0.0184082
1073.2,0.0178966
1073.0,0.017385
1072.8,0.0176332
1072.6,0.0178814
1072.4,0.0181296
1072.2,0.0183778
1072.0,0.018626
1071.8,0.0182716
1071.6,0.0179172
1071.4,0.0175628
1071.2,0.0172084
1071.0,0.016854
1070.8,0.0158794
1070.6,0.0149048
1070.4,0.0139302
1070.2,0.0129556
1070.0,0.011981
1069.8,0.0116772
1069.6,0.0113734
1069.4,0.0110696
1069.2,0.0107658
1069.0,0.010462
1068.8,0.0107476
1068.6,0.0110332
1068.4,0.0113188
1068.2,0.0116044
1068.0,0.01189
1067.8,0.0121754
1067.6,0.0124608
1067.4,0.0127462
1067.2,0.0130316
1067.0,0.013317
1066.8,0.01222
1066.6,0.011123
1066.4,0.010026
1066.2,0.008929
1066.0,0.007832
1065.8,0.0082238
1065.6,0.0086156
1065.4,0.0090074
1065.2,0.0093992
1065.0,0.009791
1064.8,0.0101
1064.6,0.010409
1064.4,0.010718
1064.2,0.011027
1064.0,0.011336
1063.8,0.011017
1063.6,0.010698
1063.4,0.010379
1063.2,0.01006
1063.0,0.009741
1062.8,0.0090672
1062.6,0.0083934
1062.4,0.0077196
1062.2,0.0070458
1062.0,0.006372
1061.8,0.006692
1061.6,0.007012
1061.4,0.007332
1061.2,0.007652
1061.0,0.007972
1060.8,0.0070274
1060.6,0.0060828
1060.4,0.0051382
1060.2,0.0041936
1060.0,0.003249
1059.8,0.0036388
1059.6,0.0040286
1059.4,0.0044184
1059.2,0.0048082
1059.0,0.005198
1058.8,0.0047518
1058.6,0.0043056
1058.4,0.0038594
1058.2,0.0034132
1058.0,0.002967
1057.8,0.0031624
1057.6,0.0033578
1057.4,0.0035532
1057.2,0.0037486
1057.0,0.003944
1056.8,0.0039736
1056.6,0.0040032
1056.4,0.0040328
1056.2,0.0040624
1056.0,0.004092
1055.8,0.0037106
1055.6,0.0033292
1055.4,0.0029478
1055.2,0.0025664
1055.0,0.002185
1054.8,0.0017758
1054.6,0.0013666
1054.4,0.0009574
1054.2,0.0005482
1054.0,0.000139
1053.8,0.000442
1053.6,0.000745
1053.4,0.001048
1053.2,0.001351
1053.0,0.001654
1052.8,0.0016214
1052.6,0.0015888
1052.4,0.0015562
1052.2,0.0015236
1052.0,0.001491
1051.8,0.0015576
1051.6,0.0016242
1051.4,0.0016908
1051.2,0.0017574
1051.0,0.001824
1050.8,0.0014948
1050.6,0.0011656
1050.4,0.0008364
1050.2,0.0005072
1050.0,0.000178
1049.8,0.0003476
1049.6,0.0005172
1049.4,0.0006868
1049.2,0.0008564
1049.0,0.001026
1048.8,0.0012968
1048.6,0.0015676
1048.4,0.0018384
1048.2,0.0021092
1048.0,0.00238
1047.8,0.0022658
1047.6,0.0021516
1047.4,0.0020374
1047.2,0.0019232
1047.0,0.001809
1046.8,0.002392
1046.6,0.002975
1046.4,0.003558
1046.2,0.004141
1046.0,0.004724
1045.8,0.0039322
1045.6,0.0031404
1045.4,0.0023486
1045.2,0.0015568
1045.0,0.000765
1044.8,0.0006902
1044.6,0.0006154
1044.4,0.0005406
1044.2,0.0004658
1044.0,0.000391
1043.8,0.0007314
1043.6,0.0010718
1043.4,0.0014122
1043.2,0.0017526
1043.0,0.002093
1042.8,0.0021154
1042.6,0.0021378
1042.4,0.0021602
1042.2,0.0021826
1042.0,0.002205
1041.8,0.0018146
1041.6,0.0014242
1041.4,0.0010338
1041.2,0.0006434
1041.0,0.000253
1040.8,0.0003268
1040.6,0.0004006
1040.4,0.0004744
1040.2,0.0005482
1040.0,0.000622
1039.8,0.0006218
1039.6,0.0006216
1039.4,0.0006214
1039.2,0.0006212
1039.0,0.000621
1038.8,0.0010256
1038.6,0.0014302
1038.4,0.0018348
1038.2,0.0022394
1038.0,0.002644
1037.8,0.003138
1037.6,0.003632
1037.4,0.004126
1037.2,0.00462
1037.0,0.005114
1036.8,0.0043696
1036.6,0.0036252
1036.4,0.0028808
1036.2,0.0021364
1036.0,0.001392
1035.8,0.0013498
1035.6,0.0013076
1035.4,0.0012654
1035.2,0.0012232
1035.0,0.001181
1034.8,0.0010222
1034.6,0.0008634
1034.4,0.0007046
1034.2,0.0005458
1034.0,0.000387
1033.8,0.0003134
1033.6,0.0002398
1033.4,0.0001662
1033.2,9.26E-05
1033.0,1.9E-05
1032.8,0.000634
1032.6,0.001249
1032.4,0.001864
1032.2,0.002479
1032.0,0.003094
1031.8,0.0028766
1031.6,0.0026592
1031.4,0.0024418
1031.2,0.0022244
1031.0,0.002007
1030.8,0.001764
1030.6,0.001521
1030.4,0.001278
1030.2,0.001035
1030.0,0.000792
1029.8,0.0007574
1029.6,0.0007228
1029.4,0.0006882
1029.2,0.0006536
1029.0,0.000619
1028.8,0.0008512
1028.6,0.0010834
1028.4,0.0013156
1028.2,0.0015478
1028.0,0.00178
1027.8,0.0018098
1027.6,0.0018396
1027.4,0.0018694
1027.2,0.0018992
1027.0,0.001929
1026.8,0.002359
1026.6,0.002789
1026.4,0.003219
1026.2,0.003649
1026.0,0.004079
1025.8,0.0036844
1025.6,0.0032898
1025.4,0.0028952
1025.2,0.0025006
1025.0,0.002106
1024.8,0.0020872
1024.6,0.0020684
1024.4,0.0020496
1024.2,0.0020308
1024.0,0.002012
1023.8,0.0021664
1023.6,0.0023208
1023.4,0.0024752
1023.2,0.0026296
1023.0,0.002784
1022.8,0.0026872
1022.6,0.0025904
1022.4,0.0024936
1022.2,0.0023968
1022.0,0.0023
1021.8,0.0019174
1021.6,0.0015348
1021.4,0.0011522
1021.2,0.0007696
1021.0,0.000387
1020.8,0.000511
1020.6,0.000635
1020.4,0.000759
1020.2,0.000883
1020.0,0.001007
1019.8,0.0013018
1019.6,0.0015966
1019.4,0.0018914
1019.2,0.0021862
1019.0,0.002481
1018.8,0.002497
1018.6,0.002513
1018.4,0.002529
1018.2,0.002545
1018.0,0.002561
1017.8,0.0020954
1017.6,0.0016298
1017.4,0.0011642
1017.2,0.0006986
1017.0,0.000233
1016.8,0.0006796
1016.6,0.0011262
1016.4,0.0015728
1016.2,0.0020194
1016.0,0.002466
1015.8,0.002035
1015.6,0.001604
1015.4,0.001173
1015.2,0.000742
1015.0,0.000311
1014.8,0.0003306
1014.6,0.0003502
1014.4,0.0003698
1014.2,0.0003894
1014.0,0.000409
1013.8,0.0004326
1013.6,0.0004562
1013.4,0.0004798
1013.2,0.0005034
1013.0,0.000527
1012.8,0.0004842
1012.6,0.0004414
1012.4,0.0003986
1012.2,0.0003558
1012.0,0.000313
1011.8,0.000795
1011.6,0.001277
1011.4,0.001759
1011.2,0.002241
1011.0,0.002723
1010.8,0.0024252
1010.6,0.0021274
1010.4,0.0018296
1010.2,0.0015318
1010.0,0.001234
1009.8,0.001211
1009.6,0.001188
1009.4,0.001165
1009.2,0.001142
1009.0,0.001119
1008.8,0.0014352
1008.6,0.0017514
1008.4,0.0020676
1008.2,0.0023838
1008.0,0.0027
1007.8,0.0025898
1007.6,0.0024796
1007.4,0.0023694
1007.2,0.0022592
1007.0,0.002149
1006.8,0.001877
1006.6,0.001605
1006.4,0.001333
1006.2,0.001061
1006.0,0.000789
1005.8,0.0008054
1005.6,0.0008218
1005.4,0.0008382
1005.2,0.0008546
1005.0,0.000871
1004.8,0.0007444
1004.6,0.0006178
1004.4,0.0004912
1004.2,0.0003646
1004.0,0.000238
1003.8,0.000593
1003.6,0.000948
1003.4,0.001303
1003.2,0.001658
1003.0,0.002013
1002.8,0.0017222
1002.6,0.0014314
1002.4,0.0011406
1002.2,0.0008498
1002.0,0.000559
1001.8,0.000539
1001.6,0.000519
1001.4,0.000499
1001.2,0.000479
1001.0,0.000459
1000.8,0.0007518
1000.6,0.0010446
1000.4,0.0013374
1000.2,0.0016302
1000.0,0.001923
999.8,0.0015586
999.6,0.0011942
999.4,0.0008298
999.2,0.0004654
999.0,0.000101
998.8,0.0001412
998.6,0.0001814
998.4,0.0002216
998.2,0.0002618
998.0,0.000302
997.8,0.0003876
997.6,0.0004732
997.4,0.0005588
997.2,0.0006444
997.0,0.00073
996.8,0.0011856
996.6,0.0016412
996.4,0.0020968
996.2,0.0025524
996.0,0.003008
995.8,0.0025366
995.6,0.0020652
995.4,0.0015938
995.2,0.0011224
995.0,0.000651
994.8,0.0014254
994.6,0.0021998
994.4,0.0029742
994.2,0.0037486
994.0,0.004523
993.8,0.0039346
993.6,0.0033462
993.4,0.0027578
993.2,0.0021694
993.0,0.001581
992.8,0.0013348
992.6,0.0010886
992.4,0.0008424
992.2,0.0005962
992.0,0.00035
991.8,0.0006992
991.6,0.0010484
991.4,0.0013976
991.2,0.0017468
991.0,0.002096
990.8,0.001893
990.6,0.00169
990.4,0.001487
990.2,0.001284
990.0,0.001081
989.8,0.001379
989.6,0.001677
989.4,0.001975
989.2,0.002273
989.0,0.002571
988.8,0.0024268
988.6,0.0022826
988.4,0.0021384
988.2,0.0019942
988.0,0.00185
987.8,0.0017164
987.6,0.0015828
987.4,0.0014492
987.2,0.0013156
987.0,0.001182
986.8,0.0010474
986.6,0.0009128
986.4,0.0007782
986.2,0.0006436
986.0,0.000509
985.8,0.0004584
985.6,0.0004078
985.4,0.0003572
985.2,0.0003066
985.0,0.000256
984.8,0.0008576
984.6,0.0014592
984.4,0.0020608
984.2,0.0026624
984.0,0.003264
983.8,0.0026586
983.6,0.0020532
983.4,0.0014478
983.2,0.0008424
983.0,0.000237
982.8,0.0007962
982.6,0.0013554
982.4,0.0019146
982.2,0.0024738
982.0,0.003033
981.8,0.0026362
981.6,0.0022394
981.4,0.0018426
981.2,0.0014458
981.0,0.001049
980.8,0.0010498
980.6,0.0010506
980.4,0.0010514
980.2,0.0010522
980.0,0.001053
979.8,0.0009836
979.6,0.0009142
979.4,0.0008448
979.2,0.0007754
979.0,0.000706
978.8,0.0006584
978.6,0.0006108
978.4,0.0005632
978.2,0.0005156
978.0,0.000468
977.8,0.001149
977.6,0.00183
977.4,0.002511
977.2,0.003192
977.0,0.003873
976.8,0.0039646
976.6,0.0040562
976.4,0.0041478
976.2,0.0042394
976.0,0.004331
975.8,0.0040328
975.6,0.0037346
975.4,0.0034364
975.2,0.0031382
975.0,0.00284
974.8,0.0030278
974.6,0.0032156
974.4,0.0034034
974.2,0.0035912
974.0,0.003779
973.8,0.003281
973.6,0.002783
973.4,0.002285
973.2,0.001787
973.0,0.001289
972.8,0.0010542
972.6,0.0008194
972.4,0.0005846
972.2,0.0003498
972.0,0.000115
971.8,0.0005976
971.6,0.0010802
971.4,0.0015628
971.2,0.0020454
971.0,0.002528
970.8,0.002173
970.6,0.001818
970.4,0.001463
970.2,0.001108
970.0,0.000753
969.8,0.0007354
969.6,0.0007178
969.4,0.0007002
969.2,0.0006826
969.0,0.000665
968.8,0.0008004
968.6,0.0009358
968.4,0.0010712
968.2,0.0012066
968.0,0.001342
967.8,0.0013056
967.6,0.0012692
967.4,0.0012328
967.2,0.0011964
967.0,0.00116
966.8,0.0011376
966.6,0.0011152
966.4,0.0010928
966.2,0.0010704
966.0,0.001048
965.8,0.0010102
965.6,0.0009724
965.4,0.0009346
965.2,0.0008968
965.0,0.000859
964.8,0.0007666
964.6,0.0006742
964.4,0.0005818
964.2,0.0004894
964.0,0.000397
963.8,0.0005778
963.6,0.0007586
963.4,0.0009394
963.2,0.0011202
963.0,0.001301
962.8,0.0016842
962.6,0.0020674
962.4,0.0024506
962.2,0.0028338
962.0,0.003217
961.8,0.002905
961.6,0.002593
961.4,0.002281
961.2,0.001969
961.0,0.001657
960.8,0.0017428
960.6,0.0018286
960.4,0.0019144
960.2,0.0020002
960.0,0.002086
959.8,0.0022736
959.6,0.0024612
959.4,0.0026488
959.2,0.0028364
959.0,0.003024
958.8,0.003045
958.6,0.003066
958.4,0.003087
958.2,0.003108
958.0,0.003129
957.8,0.0027314
957.6,0.0023338
957.4,0.0019362
957.2,0.0015386
957.0,0.001141
956.8,0.0011332
956.6,0.0011254
956.4,0.0011176
956.2,0.0011098
956.0,0.001102
955.8,0.0010554
955.6,0.0010088
955.4,0.0009622
955.2,0.0009156
955.0,0.000869
954.8,0.0011786
954.6,0.0014882
954.4,0.0017978
954.2,0.0021074
954.0,0.002417
953.8,0.0024232
953.6,0.0024294
953.4,0.0024356
953.2,0.0024418
953.0,0.002448
952.8,0.0022506
952.6,0.0020532
952.4,0.0018558
952.2,0.0016584
952.0,0.001461
951.8,0.001368
951.6,0.001275
951.4,0.001182
951.2,0.001089
951.0,0.000996
950.8,0.000843
950.6,0.00069
950.4,0.000537
950.2,0.000384
950.0,0.000231
949.8,0.0004478
949.6,0.0006646
949.4,0.0008814
949.2,0.0010982
949.0,0.001315
948.8,0.001342
948.6,0.001369
948.4,0.001396
948.2,0.001423
948.0,0.00145
947.8,0.001184
947.6,0.000918
947.4,0.000652
947.2,0.000386
947.0,0.00012
946.8,0.000218
946.6,0.000316
946.4,0.000414
946.2,0.000512
946.0,0.00061
945.8,0.000556
945.6,0.000502
945.4,0.000448
945.2,0.000394
945.0,0.00034
944.8,0.0003286
944.6,0.0003172
944.4,0.0003058
944.2,0.0002944
944.0,0.000283
943.8,0.0009926
943.6,0.0017022
943.4,0.0024118
943.2,0.0031214
943.0,0.003831
942.8,0.0034018
942.6,0.0029726
942.4,0.0025434
942.2,0.0021142
942.0,0.001685
941.8,0.0021056
941.6,0.0025262
941.4,0.0029468
941.2,0.0033674
941.0,0.003788
940.8,0.003754
940.6,0.00372
940.4,0.003686
940.2,0.003652
940.0,0.003618
939.8,0.0037754
939.6,0.0039328
939.4,0.0040902
939.2,0.0042476
939.0,0.004405
938.8,0.003524
938.6,0.002643
938.4,0.001762
938.2,0.000881
938.0,-2.98372E-16
937.8,0.0012162
937.6,0.0024324
937.4,0.0036486
937.2,0.0048648
937.0,0.006081
936.8,0.0055356
936.6,0.0049902
936.4,0.0044448
936.2,0.0038994
936.0,0.003354
935.8,0.0029712
935.6,0.0025884
935.4,0.0022056
935.2,0.0018228
935.0,0.00144
934.8,0.0018062
934.6,0.0021724
934.4,0.0025386
934.2,0.0029048
934.0,0.003271
933.8,0.0034796
933.6,0.0036882
933.4,0.0038968
933.2,0.0041054
933.0,0.004314
932.8,0.0039732
932.6,0.0036324
932.4,0.0032916
932.2,0.0029508
932.0,0.00261
931.8,0.0025048
931.6,0.0023996
931.4,0.0022944
931.2,0.0021892
931.0,0.002084
930.8,0.0018598
930.6,0.0016356
930.4,0.0014114
930.2,0.0011872
930.0,0.000963
929.8,0.001059
929.6,0.001155
929.4,0.001251
929.2,0.001347
929.0,0.001443
928.8,0.0023358
928.6,0.0032286
928.4,0.0041214
928.2,0.0050142
928.0,0.005907
927.8,0.0055674
927.6,0.0052278
927.4,0.0048882
927.2,0.0045486
927.0,0.004209
926.8,0.0036528
926.6,0.0030966
926.4,0.0025404
926.2,0.0019842
926.0,0.001428
925.8,0.001738
925.6,0.002048
925.4,0.002358
925.2,0.002668
925.0,0.002978
924.8,0.0032872
924.6,0.0035964
924.4,0.0039056
924.2,0.0042148
924.0,0.004524
923.8,0.0045866
923.6,0.0046492
923.4,0.0047118
923.2,0.0047744
923.0,0.004837
922.8,0.004336
922.6,0.003835
922.4,0.003334
922.2,0.002833
922.0,0.002332
921.8,0.0031682
921.6,0.0040044
921.4,0.0048406
921.2,0.0056768
921.0,0.006513
920.8,0.0065892
920.6,0.0066654
920.4,0.0067416
920.2,0.0068178
920.0,0.006894
919.8,0.006791
919.6,0.006688
919.4,0.006585
919.2,0.006482
919.0,0.006379
918.8,0.0074266
918.6,0.0084742
918.4,0.0095218
918.2,0.0105694
918.0,0.011617
917.8,0.0116268
917.6,0.0116366
917.4,0.0116464
917.2,0.0116562
917.0,0.011666
916.8,0.011291
916.6,0.010916
916.4,0.010541
916.2,0.010166
916.0,0.009791
915.8,0.009508
915.6,0.009225
915.4,0.008942
915.2,0.008659
915.0,0.008376
914.8,0.0107062
914.6,0.0130364
914.4,0.0153666
914.2,0.0176968
914.0,0.020027
913.8,0.0196342
913.6,0.0192414
913.4,0.0188486
913.2,0.0184558
913.0,0.018063
912.8,0.0182046
912.6,0.0183462
912.4,0.0184878
912.2,0.0186294
912.0,0.018771
911.8,0.0198842
911.6,0.0209974
911.4,0.0221106
911.2,0.0232238
911.0,0.024337
910.8,0.0252638
910.6,0.0261906
910.4,0.0271174
910.2,0.0280442
910.0,0.028971
909.8,0.0296064
909.6,0.0302418
909.4,0.0308772
909.2,0.0315126
909.0,0.032148
908.8,0.0322962
908.6,0.0324444
908.4,0.0325926
908.2,0.0327408
908.0,0.032889
907.8,0.0336228
907.6,0.0343566
907.4,0.0350904
907.2,0.0358242
907.0,0.036558
906.8,0.0389288
906.6,0.0412996
906.4,0.0436704
906.2,0.0460412
906.0,0.048412
905.8,0.049059
905.6,0.049706
905.4,0.050353
905.2,0.051
905.0,0.051647
904.8,0.0534268
904.6,0.0552066
904.4,0.0569864
904.2,0.0587662
904.0,0.060546
903.8,0.0631154
903.6,0.0656848
903.4,0.0682542
903.2,0.0708236
903.0,0.073393
902.8,0.0748176
902.6,0.0762422
902.4,0.0776668
902.2,0.0790914
902.0,0.080516
901.8,0.0833596
901.6,0.0862032
901.4,0.0890468
901.2,0.0918904
901.0,0.094734
900.8,0.098844
900.6,0.102954
900.4,0.107064
900.2,0.111174
900.0,0.115284
899.8,0.1182332
899.6,0.1211824
899.4,0.1241316
899.2,0.1270808
899.0,0.13003
898.8,0.1343424
898.6,0.1386548
898.4,0.1429672
898.2,0.1472796
898.0,0.151592
897.8,0.1587968
897.6,0.1660016
897.4,0.1732064
897.2,0.1804112
897.0,0.187616
896.8,0.1946482
896.6,0.2016804
896.4,0.2087126
896.2,0.2157448
896.0,0.222777
895.8,0.2324556
895.6,0.2421342
895.4,0.2518128
895.2,0.2614914
895.0,0.27117
894.8,0.2802894
894.6,0.2894088
894.4,0.2985282
894.2,0.3076476
894.0,0.316767
893.8,0.3313588
893.6,0.3459506
893.4,0.3605424
893.2,0.3751342
893.0,0.389726
892.8,0.4042436
892.6,0.4187612
892.4,0.4332788
892.2,0.4477964
892.0,0.462314
891.8,0.4848258
891.6,0.5073376
891.4,0.5298494
891.2,0.5523612
891.0,0.574873
890.8,0.599698
890.6,0.624523
890.4,0.649348
890.2,0.674173
890.0,0.698998
889.8,0.7311706
889.6,0.7633432
889.4,0.7955158
889.2,0.8276884
889.0,0.859861
888.8,0.9046228
888.6,0.9493846
888.4,0.9941464
888.2,1.0389082
888.0,1.08367
887.8,1.13879
887.6,1.19391
887.4,1.24903
887.2,1.30415
887.0,1.35927
886.8,1.433006
886.6,1.506742
886.4,1.580478
886.2,1.654214
886.0,1.72795
885.8,1.821274
885.6,1.914598
885.4,2.007922
885.2,2.101246
885.0,2.19457
884.8,2.320654
884.6,2.446738
884.4,2.572822
884.2,2.698906
884.0,2.82499
883.8,2.991072
883.6,3.157154
883.4,3.323236
883.2,3.489318
883.0,3.6554
882.8,3.879662
882.6,4.103924
882.4,4.328186
882.2,4.552448
882.0,4.77671
881.8,5.07759
881.6,5.37847
881.4,5.67935
881.2,5.98023
881.0,6.28111
880.8,6.68996
880.6,7.09881
880.4,7.50766
880.2,7.91651
880.0,8.32536
879.8,8.875788
879.6,9.426216
879.4,9.976644
879.2,10.527072
879.0,11.0775
878.8,11.80366
878.6,12.52982
878.4,13.25598
878.2,13.98214
878.0,14.7083
877.8,15.68216
877.6,16.65602
877.4,17.62988
877.2,18.60374
877.0,19.5776
876.8,20.82228
876.6,22.06696
876.4,23.31164
876.2,24.55632
876.0,25.801
875.8,27.3415
875.6,28.882
875.4,30.4225
875.2,31.963
875.0,33.5035
874.8,35.32296
874.6,37.14242
874.4,38.96188
874.2,40.78134
874.0,42.6008
873.8,44.59684
873.6,46.59288
873.4,48.58892
873.2,50.58496
873.0,52.581
872.8,54.6809
872.6,56.7808
872.4,58.8807
872.2,60.9806
872.0,63.0805
871.8,65.04888
871.6,67.01726
871.4,68.98564
871.2,70.95402
871.0,72.9224
870.8,74.63718
870.6,76.35196
870.4,78.06674
870.2,79.78152
870.0,81.4963
869.8,82.85622
869.6,84.21614
869.4,85.57606
869.2,86.93598
869.0,88.2959
868.8,89.22356
868.6,90.15122
868.4,91.07888
868.2,92.00654
868.0,92.9342
867.8,93.57198
867.6,94.20976
867.4,94.84754
867.2,95.48532
867.0,96.1231
866.8,96.50922
866.6,96.89534
866.4,97.28146
866.2,97.66758
866.0,98.0537
865.8,98.26232
865.6,98.47094
865.4,98.67956
865.2,98.88818
865.0,99.0968
864.8,99.17662
864.6,99.25644
864.4,99.33626
864.2,99.41608
864.0,99.4959
863.8,99.50638
863.6,99.51686
863.4,99.52734
863.2,99.53782
863.0,99.5483
862.8,99.57608
862.6,99.60386
862.4,99.63164
862.2,99.65942
862.0,99.6872
861.8,99.67552
861.6,99.66384
861.4,99.65216
861.2,99.64048
861.0,99.6288
860.8,99.61338
860.6,99.59796
860.4,99.58254
860.2,99.56712
860.0,99.5517
859.8,99.5579
859.6,99.5641
859.4,99.5703
859.2,99.5765
859.0,99.5827
858.8,99.6104
858.6,99.6381
858.4,99.6658
858.2,99.6935
858.0,99.7212
857.8,99.70396
857.6,99.68672
857.4,99.66948
857.2,99.65224
857.0,99.635
856.8,99.66174
856.6,99.68848
856.4,99.71522
856.2,99.74196
856.0,99.7687
855.8,99.75218
855.6,99.73566
855.4,99.71914
855.2,99.70262
855.0,99.6861
854.8,99.6618
854.6,99.6375
854.4,99.6132
854.2,99.5889
854.0,99.5646
853.8,99.5641
853.6,99.5636
853.4,99.5631
853.2,99.5626
853.0,99.5621
852.8,99.62018
852.6,99.67826
852.4,99.73634
852.2,99.79442
852.0,99.8525
851.8,99.84378
851.6,99.83506
851.4,99.82634
851.2,99.81762
851.0,99.8089
850.8,99.73238
850.6,99.65586
850.4,99.57934
